BEGIN IONS
CHARGE=2+
PEPMASS=1285.591258
PRECURSORMZ=643.8035478
TITLE=MS/MS scan at 20.93388333 min with Intensity: 501.0 and Sequence ANLGMEVMHER


100.666675 10.000000
103.057515 12.000000
103.068913 12.000000
104.052913 12.000000
104.054345 12.000000
104.058640 12.000000
110.065394 12.000000
110.072756 12.000000
110.075700 24.000000
110.080118 12.000000
112.081325 10.000000
113.067050 12.000000
113.073019 12.000000
113.074511 24.000000
114.882914 10.000000
115.045425 10.000000
117.069808 10.000000
117.311367 10.000000
122.078500 10.000000
123.062001 10.000000
126.073994 10.000000
129.072972 10.000000
130.095404 10.000000
130.722031 10.000000
131.078484 10.000000
133.125364 24.000000
138.068604 10.000000
141.061133 12.000000
141.064467 12.000000
141.066133 36.000000
141.067800 12.000000
141.072801 12.000000
141.074468 12.000000
141.081135 12.000000
141.089470 12.000000
155.117628 10.000000
158.087362 12.000000
158.089126 12.000000
158.092655 12.000000
158.094420 12.000000
158.096184 12.000000
158.097949 12.000000
158.099713 12.000000
161.076348 10.000000
165.042099 10.000000
169.054252 12.000000
169.056077 24.000000
169.057901 24.000000
169.059726 24.000000
169.063376 12.000000
169.070675 12.000000
169.072500 12.000000
171.107768 12.000000
171.109604 12.000000
171.113276 12.000000
171.118783 12.000000
173.116435 10.000000
174.046469 12.000000
174.048320 12.000000
174.050172 12.000000
174.055726 12.000000
174.059429 12.000000
175.118252 12.000000
175.120109 12.000000
175.121966 24.000000
176.077848 10.000000
177.537118 10.000000
183.115233 12.000000
183.117132 12.000000
186.074454 12.000000
186.078282 24.000000
186.080197 12.000000
186.082111 12.000000
186.084025 81.000000
186.085940 36.000000
186.087854 60.000000
186.089769 24.000000
186.091683 65.000000
186.093598 12.000000
186.095512 60.000000
186.097427 60.000000
186.099341 12.000000
186.108914 12.000000
187.086606 10.000000
189.068972 12.000000
189.072832 12.000000
189.074761 12.000000
198.089275 12.000000
198.101127 12.000000
198.111003 12.000000
200.138876 12.000000
200.144832 12.000000
200.148803 12.000000
201.124839 10.000000
203.972978 10.000000
207.071298 12.000000
207.111690 10.000000
211.105481 12.000000
211.113638 12.000000
221.073161 12.000000
221.087767 12.000000
223.106026 10.000000
224.096535 10.000000
228.129258 12.000000
228.131377 12.000000
228.139856 12.000000
235.085280 10.000000
236.138664 10.000000
237.138210 10.000000
238.120376 10.000000
240.119067 10.000000
243.103226 12.000000
243.111978 12.000000
243.120731 12.000000
244.134931 10.000000
245.142453 24.000000
246.154251 12.000000
246.160856 12.000000
247.146070 12.000000
247.150482 12.000000
249.093604 10.000000
249.171133 12.000000
249.173348 12.000000
249.188855 12.000000
250.129052 10.000000
250.590928 10.000000
254.146875 12.000000
254.149112 24.000000
254.153586 12.000000
254.160298 12.000000
254.167011 12.000000
257.119924 12.000000
257.126675 12.000000
259.076925 10.000000
261.098034 12.000000
261.109373 12.000000
263.174804 12.000000
263.186188 12.000000
264.136439 10.000000
266.129069 12.000000
266.142806 12.000000
266.145095 12.000000
266.149674 24.000000
266.151964 12.000000
267.128192 12.000000
267.132780 12.000000
268.133784 12.000000
268.161361 24.000000
269.134357 10.000000
271.187314 24.000000
278.122723 10.000000
281.161851 10.000000
282.141632 12.000000
282.148703 12.000000
282.153418 12.000000
282.172277 12.000000
282.174635 12.000000
283.175069 10.000000
285.155180 24.000000
285.162290 12.000000
285.864204 10.000000
286.165628 10.000000
287.097008 12.000000
287.130300 12.000000
287.146946 12.000000
288.137091 24.000000
289.148031 10.000000
289.821381 10.000000
294.142629 12.000000
294.145036 12.000000
294.154664 12.000000
296.109940 12.000000
296.119600 12.000000
296.122014 24.000000
296.141335 12.000000
296.143750 12.000000
296.798597 10.000000
298.246168 10.000000
299.170287 12.000000
299.172714 12.000000
299.175142 12.000000
299.177569 12.000000
299.179997 12.000000
299.182424 12.000000
300.098266 10.000000
302.151222 10.000000
304.159775 12.000000
304.167118 12.000000
304.169565 12.000000
304.172013 12.000000
310.141321 12.000000
310.185809 12.000000
311.170313 12.000000
311.177740 12.000000
311.182692 12.000000
311.200021 12.000000
311.207448 12.000000
312.124145 12.000000
312.134062 12.000000
313.144002 12.000000
313.148969 24.000000
313.151452 12.000000
313.161386 12.000000
313.163869 12.000000
314.160547 10.000000
316.128709 10.000000
317.117594 12.000000
317.125091 12.000000
318.108023 12.000000
318.110526 36.000000
318.115532 12.000000
318.218166 10.000000
319.207804 10.000000
321.088576 10.000000
323.174150 10.000000
328.143007 10.000000
328.201480 12.000000
328.209108 12.000000
329.201417 10.000000
334.157212 10.000000
336.168938 12.000000
336.174084 12.000000
337.201546 12.000000
337.224740 12.000000
339.160369 12.000000
339.162954 24.000000
339.165538 48.000000
339.173292 12.000000
339.175877 24.000000
339.181046 24.000000
339.183631 24.000000
339.188800 12.000000
339.201723 12.000000
339.204308 12.000000
340.174263 10.000000
341.101538 10.000000
341.181892 10.000000
342.144285 10.000000
344.880596 10.000000
345.211667 10.000000
348.489198 10.000000
349.189045 10.000000
352.878055 10.000000
353.859433 10.000000
354.152528 12.000000
354.186862 12.000000
354.223839 12.000000
355.199151 10.000000
356.191694 12.000000
356.196992 12.000000
356.199640 12.000000
356.202289 12.000000
356.210235 12.000000
356.215532 12.000000
356.218181 12.000000
356.223479 12.000000
356.231425 12.000000
357.156448 10.000000
360.157074 24.000000
360.159737 24.000000
360.167727 12.000000
364.953620 10.000000
368.183306 10.000000
369.266625 10.000000
372.905444 10.000000
373.195477 12.000000
373.203610 12.000000
373.604967 10.000000
377.177824 12.000000
377.194178 12.000000
377.196903 12.000000
380.228395 10.000000
386.165049 12.000000
386.184354 12.000000
389.235064 12.000000
389.240602 12.000000
389.819492 12.000000
389.825034 12.000000
390.221367 10.000000
392.823303 12.000000
392.828866 12.000000
392.856682 12.000000
394.062042 10.000000
394.204135 12.000000
394.212494 12.000000
394.226426 12.000000
394.878727 10.000000
395.216239 10.000000
398.156717 12.000000
398.162318 12.000000
399.171076 12.000000
399.179487 12.000000
400.686605 10.000000
405.162847 10.000000
410.149820 10.000000
410.826537 12.000000
410.829381 12.000000
410.837915 12.000000
410.843604 12.000000
410.846449 12.000000
410.849293 12.000000
410.852138 12.000000
410.872050 12.000000
411.216328 12.000000
411.227712 12.000000
411.233403 12.000000
411.239095 12.000000
411.264709 12.000000
411.768611 10.000000
412.164548 10.000000
412.842923 12.000000
412.854329 12.000000
413.450514 10.000000
414.869963 10.000000
415.184455 10.000000
415.301706 10.000000
415.833830 10.000000
416.163002 10.000000
418.186687 10.000000
419.737860 10.000000
423.221177 10.000000
424.177349 12.000000
424.183130 24.000000
424.194692 12.000000
424.197582 12.000000
424.203363 12.000000
424.209144 12.000000
424.212034 12.000000
424.223597 12.000000
425.102771 10.000000
425.172219 12.000000
425.218520 12.000000
426.090034 10.000000
426.762374 10.000000
428.213186 10.000000
431.195046 12.000000
431.209618 12.000000
433.152678 10.000000
433.327943 10.000000
433.696114 10.000000
434.181405 10.000000
434.781083 10.000000
436.251313 10.000000
438.235064 10.000000
439.631665 10.000000
439.781748 12.000000
439.814122 12.000000
440.208594 10.000000
440.856618 10.000000
441.204390 12.000000
441.216182 12.000000
441.219130 12.000000
441.222077 24.000000
441.227973 12.000000
441.233869 12.000000
441.236817 48.000000
441.239765 12.000000
441.248609 12.000000
441.298725 12.000000
441.714509 10.000000
442.198361 12.000000
442.204263 12.000000
442.213117 12.000000
442.230824 12.000000
443.828884 10.000000
446.096500 10.000000
447.481811 10.000000
448.206469 10.000000
448.491740 10.000000
448.857377 10.000000
450.050448 10.000000
450.199321 10.000000
451.218272 10.000000
452.495074 10.000000
452.799624 10.000000
453.256643 10.000000
454.305967 10.000000
454.422633 10.000000
454.760751 10.000000
455.200793 10.000000
457.074091 10.000000
457.209117 10.000000
458.052730 10.000000
459.182767 10.000000
461.239028 10.000000
461.667114 10.000000
462.125568 12.000000
462.131602 12.000000
463.170001 10.000000
463.777279 10.000000
464.744912 10.000000
466.204312 24.000000
466.210372 12.000000
466.219463 12.000000
466.280069 10.000000
467.702419 10.000000
468.239775 10.000000
469.251569 12.000000
469.260689 12.000000
469.908452 12.000000
469.926705 12.000000
470.081873 10.000000
470.206634 12.000000
470.212720 24.000000
470.215763 12.000000
470.249239 12.000000
470.809371 12.000000
470.815461 12.000000
472.086133 10.000000
472.802974 10.000000
473.205863 10.000000
473.312719 10.000000
476.236066 10.000000
476.704759 10.000000
478.170528 10.000000
479.024039 10.000000
483.133338 10.000000
483.710349 10.000000
485.239393 12.000000
485.257942 12.000000
486.250812 10.000000
487.219916 12.000000
487.229209 12.000000
487.281872 12.000000
488.245800 12.000000
488.276810 12.000000
494.723378 12.000000
494.726500 12.000000
494.729621 12.000000
494.735864 12.000000
494.738986 24.000000
494.763958 12.000000
495.229187 12.000000
495.232310 12.000000
495.238556 12.000000
497.192420 12.000000
497.248749 12.000000
499.714665 10.000000
502.743489 10.000000
504.110076 10.000000
506.090817 10.000000
509.246545 12.000000
509.252879 12.000000
509.433413 10.000000
509.845277 10.000000
511.008900 10.000000
511.735647 10.000000
513.095319 10.000000
514.275373 10.000000
515.424920 10.000000
520.192772 12.000000
520.234384 12.000000
520.256791 12.000000
521.749535 12.000000
521.755946 12.000000
521.832884 10.000000
522.243315 10.000000
523.215526 12.000000
523.247627 12.000000
523.250838 12.000000
523.257258 12.000000
526.247036 10.000000
527.719328 10.000000
528.209474 10.000000
528.709528 10.000000
529.138795 10.000000
529.206590 10.000000
530.259583 10.000000
530.728275 12.000000
530.731508 12.000000
530.786472 12.000000
531.413907 10.000000
534.387934 10.000000
534.699423 10.000000
537.357247 10.000000
541.225734 12.000000
541.245323 12.000000
542.205644 12.000000
542.228519 12.000000
543.258400 10.000000
544.803417 10.000000
546.737772 12.000000
546.744335 12.000000
546.754180 24.000000
547.722657 12.000000
547.745648 12.000000
548.245006 12.000000
548.264722 12.000000
548.708429 12.000000
548.711716 12.000000
548.715004 12.000000
548.751166 24.000000
548.754453 12.000000
551.252517 12.000000
551.255812 12.000000
551.259107 12.000000
551.268992 12.000000
551.282172 24.000000
551.288763 12.000000
551.733691 12.000000
551.746877 12.000000
551.756767 12.000000
553.247791 10.000000
553.736440 12.000000
553.779372 12.000000
555.246669 10.000000
555.749433 10.000000
556.129965 12.000000
556.196158 12.000000
556.249115 12.000000
556.268974 12.000000
559.232007 12.000000
559.248601 12.000000
559.261876 12.000000
560.746384 10.000000
561.238332 10.000000
561.720518 12.000000
561.760432 12.000000
561.780390 12.000000
562.712143 10.000000
564.264557 10.000000
566.700749 12.000000
566.704090 12.000000
566.707431 12.000000
566.774250 24.000000
566.861121 10.000000
568.208472 10.000000
568.663522 12.000000
568.693642 12.000000
568.773966 10.000000
571.749940 10.000000
572.166122 12.000000
572.229905 12.000000
572.239976 24.000000
572.243333 24.000000
572.250048 12.000000
572.253405 24.000000
572.256762 24.000000
572.260119 12.000000
572.263476 48.000000
572.266834 36.000000
572.270191 36.000000
572.273548 36.000000
572.276905 36.000000
572.290334 12.000000
572.297049 12.000000
572.300406 24.000000
572.317193 12.000000
573.227399 12.000000
573.237479 12.000000
573.274440 12.000000
574.256028 10.000000
580.207134 10.000000
582.264251 10.000000
584.728772 12.000000
584.732166 12.000000
587.246110 10.000000
587.742741 10.000000
588.304255 12.000000
588.307659 12.000000
588.757065 10.000000
590.771280 10.000000
595.193433 10.000000
597.283783 10.000000
597.767484 10.000000
597.887582 10.000000
598.601556 10.000000
599.226632 12.000000
599.254115 12.000000
599.271293 12.000000
599.278164 12.000000
599.752360 10.000000
600.295512 12.000000
600.312704 12.000000
603.270002 10.000000
604.263133 10.000000
605.301965 10.000000
607.717845 12.000000
607.738603 12.000000
608.202290 12.000000
608.257668 12.000000
608.274974 12.000000
608.278435 12.000000
608.281896 12.000000
608.313048 12.000000
608.330355 12.000000
613.769902 12.000000
613.787286 12.000000
613.790763 12.000000
613.797717 12.000000
615.262364 10.000000
616.279248 12.000000
616.289700 12.000000
616.314088 12.000000
618.228298 10.000000
622.296659 12.000000
622.300160 12.000000
623.329850 10.000000
625.777895 10.000000
626.262461 12.000000
626.283533 12.000000
626.315142 12.000000
627.351662 10.000000
627.685638 10.000000
628.279985 10.000000
632.345942 10.000000
634.793932 12.000000
634.808075 12.000000
634.871723 12.000000
635.151105 10.000000
635.281975 12.000000
635.299661 12.000000
635.317348 12.000000
635.324423 12.000000
635.331497 12.000000
635.848057 24.000000
641.910247 10.000000
643.215827 10.000000
643.308370 10.000000
643.408040 12.000000
643.415160 12.000000
643.732020 12.000000
643.788992 12.000000
643.792553 12.000000
643.796114 24.000000
643.799675 12.000000
643.803236 24.000000
643.810358 36.000000
643.813919 12.000000
643.821040 12.000000
643.824601 12.000000
643.828162 12.000000
644.284043 12.000000
644.298292 24.000000
647.561861 10.000000
649.266467 10.000000
649.377326 10.000000
651.313518 10.000000
653.675916 10.000000
654.275261 12.000000
654.321928 12.000000
655.226881 12.000000
655.295136 12.000000
655.331062 12.000000
657.297691 10.000000
658.298314 10.000000
661.315576 10.000000
669.671316 10.000000
670.863044 10.000000
671.295670 12.000000
671.302943 12.000000
671.310215 12.000000
671.313851 36.000000
671.321123 36.000000
671.324760 24.000000
671.328396 24.000000
671.332032 60.000000
671.335668 24.000000
671.339304 62.000000
671.342941 61.000000
671.346577 48.000000
671.350213 12.000000
671.353849 24.000000
671.361122 12.000000
671.364758 12.000000
671.368395 12.000000
672.332360 12.000000
672.339638 12.000000
672.346916 12.000000
677.370738 10.000000
678.112403 10.000000
679.011712 10.000000
679.809160 10.000000
681.299224 12.000000
681.313876 24.000000
681.335855 12.000000
685.882112 10.000000
687.353058 10.000000
688.240064 10.000000
689.249221 10.000000
694.380059 10.000000
697.271274 12.000000
697.341686 12.000000
698.312989 12.000000
698.327823 12.000000
699.314657 12.000000
699.366615 12.000000
699.414863 12.000000
705.306197 10.000000
707.040352 10.000000
714.609640 10.000000
715.318864 12.000000
715.333878 12.000000
721.325661 10.000000
724.336590 10.000000
732.400189 10.000000
744.830127 12.000000
744.853108 12.000000
747.360126 10.000000
747.701620 10.000000
757.310588 12.000000
757.322174 12.000000
757.349209 12.000000
758.543079 10.000000
759.393656 10.000000
761.258860 10.000000
762.327932 10.000000
763.316329 10.000000
764.394604 10.000000
765.361044 10.000000
766.907063 10.000000
768.407958 10.000000
772.490327 10.000000
777.487185 10.000000
777.960748 10.000000
778.360061 10.000000
782.347056 12.000000
782.358832 12.000000
782.366683 24.000000
782.374534 12.000000
782.394161 12.000000
783.324775 12.000000
783.344414 12.000000
783.348342 12.000000
783.356198 12.000000
783.375838 12.000000
783.379765 12.000000
783.387621 12.000000
783.395477 12.000000
783.745107 10.000000
786.363913 10.000000
793.179022 10.000000
796.316401 10.000000
797.909216 12.000000
797.976609 12.000000
798.384991 10.000000
800.329213 12.000000
800.333183 12.000000
800.337153 12.000000
800.345094 12.000000
800.349064 36.000000
800.353034 24.000000
800.357005 24.000000
800.360975 48.000000
800.364945 24.000000
800.368916 36.000000
800.372886 60.000000
800.376856 60.000000
800.380827 60.000000
800.384797 48.000000
800.388767 84.000000
800.392738 63.000000
800.396708 24.000000
800.400678 24.000000
800.404649 24.000000
800.408619 24.000000
800.412590 12.000000
800.420531 12.000000
800.448324 12.000000
801.369747 24.000000
801.393583 12.000000
801.401529 12.000000
801.405502 12.000000
801.421394 12.000000
801.842579 10.000000
802.247974 10.000000
802.406981 10.000000
803.906392 10.000000
807.052934 10.000000
808.361152 10.000000
812.468162 10.000000
812.948258 10.000000
814.008972 10.000000
814.333328 12.000000
814.349347 12.000000
814.361362 12.000000
816.308890 10.000000
817.472103 10.000000
833.382124 10.000000
842.347471 10.000000
845.968266 10.000000
848.566310 10.000000
851.385354 12.000000
851.414018 12.000000
853.397133 10.000000
854.488008 10.000000
857.419594 10.000000
860.401481 10.000000
868.505313 10.000000
869.378198 12.000000
869.407164 12.000000
869.423716 12.000000
869.465097 12.000000
870.441973 12.000000
870.475097 12.000000
876.676217 10.000000
878.330793 10.000000
884.509696 10.000000
885.561804 10.000000
890.421281 12.000000
890.438032 12.000000
895.361242 12.000000
895.411634 12.000000
896.386168 10.000000
900.588598 10.000000
913.424508 10.000000
914.370599 12.000000
914.391817 24.000000
914.455474 12.000000
917.296817 12.000000
917.381828 10.000000
926.342702 10.000000
927.453586 12.000000
927.466408 12.000000
928.389809 12.000000
928.471056 12.000000
928.548030 12.000000
931.351205 12.000000
931.402601 12.000000
931.411167 48.000000
931.415450 48.000000
931.419733 12.000000
931.424016 60.000000
931.436865 36.000000
931.441148 24.000000
931.445431 12.000000
931.449714 48.000000
931.453997 36.000000
931.458280 12.000000
931.466847 36.000000
931.475413 24.000000
931.488263 12.000000
932.413663 12.000000
932.430804 12.000000
933.425274 12.000000
933.463863 12.000000
944.429608 12.000000
944.438234 12.000000
953.356636 12.000000
953.408635 12.000000
956.492101 10.000000
963.418699 10.000000
968.508845 10.000000
970.453350 24.000000
970.457721 12.000000
971.406650 24.000000
971.424146 24.000000
971.432894 12.000000
971.441642 12.000000
971.450391 12.000000
971.472261 12.000000
972.474202 10.000000
978.549370 10.000000
981.400595 12.000000
981.448957 12.000000
981.475336 12.000000
981.492923 24.000000
983.432808 12.000000
983.437209 12.000000
985.405445 10.000000
986.432175 10.000000
987.728467 10.000000
988.376932 12.000000
988.385756 12.000000
988.394580 12.000000
988.398992 12.000000
988.403405 24.000000
988.407817 12.000000
988.412229 12.000000
988.416641 36.000000
988.421053 76.000000
988.425465 170.000000
988.429877 82.000000
988.434290 144.000000
988.438702 92.000000
988.443114 70.000000
988.447526 83.000000
988.451938 66.000000
988.456351 60.000000
988.460763 65.000000
988.465175 60.000000
988.469587 71.000000
988.474000 36.000000
988.478412 60.000000
988.487236 12.000000
988.496061 36.000000
988.500473 12.000000
988.509298 12.000000
988.513710 12.000000
988.518123 12.000000
988.641673 12.000000
988.650498 12.000000
988.840252 10.000000
989.409622 12.000000
989.422865 12.000000
989.436108 12.000000
989.440523 12.000000
989.444937 24.000000
989.467009 12.000000
989.489082 12.000000
989.493496 12.000000
996.144108 10.000000
998.408794 12.000000
998.430966 12.000000
999.446710 10.000000
1015.491554 10.000000
1028.479729 10.000000
1034.487872 24.000000
1034.496900 12.000000
1035.481146 10.000000
1036.926758 10.000000
1038.391469 12.000000
1038.432170 12.000000
1043.439961 10.000000
1044.487413 10.000000
1057.604359 10.000000
1082.536407 10.000000
1084.462733 12.000000
1084.476598 12.000000
1084.536679 12.000000
1084.550544 24.000000
1084.601384 12.000000
1098.115871 10.000000
1101.401607 12.000000
1101.443525 12.000000
1101.476128 12.000000
1101.494759 24.000000
1101.499417 12.000000
1101.504074 24.000000
1101.513390 12.000000
1101.518048 24.000000
1101.522705 36.000000
1101.527363 12.000000
1101.532021 36.000000
1101.536679 67.000000
1101.541336 36.000000
1101.545994 36.000000
1101.550652 12.000000
1101.555310 24.000000
1101.559968 36.000000
1101.564625 12.000000
1101.569283 24.000000
1101.573941 36.000000
1101.578599 12.000000
1101.601888 12.000000
1101.606546 12.000000
1101.764922 10.000000
1102.519689 36.000000
1102.524349 12.000000
1102.533669 12.000000
1102.542988 12.000000
1102.547648 12.000000
1105.396695 10.000000
1106.745561 10.000000
1108.113935 10.000000
1111.545589 10.000000
1112.533055 10.000000
1113.535008 12.000000
1113.605255 12.000000
1119.509239 10.000000
1129.471940 12.000000
1129.490806 12.000000
1130.604176 10.000000
1187.552274 10.000000
1187.890833 10.000000
1198.526706 10.000000
1215.528204 10.000000
1226.527637 12.000000
1226.552212 12.000000
1226.576787 12.000000
1337.629577 10.000000


END IONS
